 #r(A)        ρ(r)_raw       ρ_smooth(r)         Base
    0.0500      0.0000000      0.0000000      0.0463613
    0.1500      0.0000000      0.0000000      0.0467286
    0.2500      0.0000000      0.0000000      0.0471227
    0.3500      0.0000000      0.0010504      0.0475377
    0.4500      0.0031511      0.0024567      0.0479694
    0.5500      0.0042189      0.0048823      0.0484143
    0.6500      0.0072769      0.0079914      0.0488710
    0.7500      0.0124785      0.0115631      0.0493388
    0.8500      0.0149339      0.0146438      0.0498156
    0.9500      0.0165191      0.0172543      0.0503001
    1.0500      0.0203099      0.0189436      0.0507918
    1.1500      0.0200018      0.0196992      0.0512884
    1.2500      0.0187858      0.0190617      0.0517889
    1.3500      0.0183975      0.0185656      0.0522912
    1.4500      0.0185134      0.0182273      0.0527924
    1.5500      0.0177711      0.0177200      0.0532896
    1.6500      0.0168755      0.0167263      0.0537820
    1.7500      0.0155323      0.0162773      0.0542700
    1.8500      0.0164240      0.0176290      0.0547561
    1.9500      0.0209307      0.0225512      0.0552424
    2.0500      0.0302988      0.0323910      0.0557305
    2.1500      0.0459433      0.0473421      0.0562201
    2.2500      0.0657842      0.0664477      0.0567074
    2.3500      0.0876157      0.0878477      0.0571859
    2.4500      0.1101432      0.1102070      0.0576468
    2.5500      0.1328621      0.1301739      0.0580803
    2.6500      0.1475164      0.1445667      0.0590847
    2.7500      0.1533216      0.1491485      0.0599740
    2.8500      0.1466075      0.1430977      0.0607464
    2.9500      0.1293641      0.1275227      0.0614144
    3.0500      0.1065966      0.1072223      0.0620010
    3.1500      0.0857062      0.0862576      0.0625344
    3.2500      0.0664700      0.0685052      0.0630394
    3.3500      0.0533393      0.0549426      0.0635376
    3.4500      0.0450186      0.0473668      0.0640421
    3.5500      0.0437425      0.0450606      0.0645603
    3.6500      0.0464207      0.0471888      0.0650924
    3.7500      0.0514031      0.0508480      0.0656343
    3.8500      0.0547201      0.0541613      0.0661801
    3.9500      0.0563606      0.0560351      0.0667257
    4.0500      0.0570246      0.0575038      0.0672689
    4.1500      0.0591261      0.0600055      0.0678085
    4.2500      0.0638659      0.0640111      0.0683437
    4.3500      0.0690412      0.0699874      0.0688718
    4.4500      0.0770550      0.0769519      0.0693908
    4.5500      0.0847593      0.0848166      0.0698968
    4.6500      0.0926355      0.0917275      0.0703868
    4.7500      0.0977877      0.0966545      0.0708575
    4.8500      0.0995404      0.0978043      0.0713069
    4.9500      0.0960847      0.0949063      0.0717350
    5.0500      0.0890939      0.0893343      0.0721447
    5.1500      0.0828242      0.0825885      0.0725402
    5.2500      0.0758475      0.0765315      0.0729033
    5.3500      0.0709227      0.0715966      0.0732369
    5.4500      0.0680197      0.0689492      0.0735428
    5.5500      0.0679052      0.0682983      0.0738219
    5.6500      0.0689700      0.0698114      0.0740750
    5.7500      0.0725591      0.0724159      0.0743017
    5.8500      0.0757188      0.0752280      0.0745007
    5.9500      0.0774061      0.0773803      0.0746717
    6.0500      0.0790159      0.0787504      0.0748148
    6.1500      0.0798291      0.0790267      0.0749295
    6.2500      0.0782351      0.0771066      0.0750166
    6.3500      0.0732555      0.0730332      0.0750770
    6.4500      0.0676091      0.0673093      0.0751147
    6.5500      0.0610633      0.0623180      0.0751347
    6.6500      0.0582817      0.0589682      0.0751431
    6.7500      0.0575595      0.0589436      0.0751431
    6.8500      0.0609896      0.0616645      0.0751363
    6.9500      0.0664445      0.0673890      0.0751206
    7.0500      0.0747328      0.0748888      0.0750930
    7.1500      0.0834890      0.0829539      0.0750490
    7.2500      0.0906400      0.0891335      0.0749854
    7.3500      0.0932716      0.0917754      0.0749017
    7.4500      0.0914147      0.0903210      0.0748025
    7.5500      0.0862767      0.0857477      0.0746963
    7.6500      0.0795515      0.0801978      0.0745947
    7.7500      0.0747650      0.0749979      0.0745104
    7.8500      0.0706771      0.0713933      0.0744518
    7.9500      0.0687376      0.0697079      0.0744234
    8.0500      0.0697090      0.0703943      0.0744236
    8.1500      0.0727362      0.0729882      0.0744450
    8.2500      0.0765193      0.0763461      0.0744763
    8.3500      0.0797827      0.0785022      0.0745070
    8.4500      0.0792046      0.0788754      0.0745273
    8.5500      0.0776388      0.0773152      0.0745336
    8.6500      0.0751021      0.0746486      0.0745244
    8.7500      0.0712048      0.0712015      0.0745023
    8.8500      0.0672976      0.0676113      0.0744724
    8.9500      0.0643314      0.0643219      0.0744403
    9.0500      0.0613366      0.0618137      0.0744106
    9.1500      0.0597732      0.0608255      0.0743871
    9.2500      0.0613665      0.0617698      0.0743717
    9.3500      0.0641696      0.0649011      0.0743648
    9.4500      0.0691671      0.0695597      0.0743658
    9.5500      0.0753423      0.0755886      0.0743718
    9.6500      0.0822564      0.0820072      0.0743800
    9.7500      0.0884228      0.0875296      0.0743863
    9.8500      0.0919094      0.0912619      0.0743874
    9.9500      0.0934533      0.0924737      0.0743815
   10.0500      0.0920583      0.0908782      0.0743669
   10.1500      0.0871231      0.0869220      0.0743429
   10.2500      0.0815847      0.0812139      0.0743111
   10.3500      0.0749341      0.0754033      0.0742739
   10.4500      0.0696911      0.0703643      0.0742350
   10.5500      0.0664676      0.0670625      0.0741976
   10.6500      0.0650289      0.0654993      0.0741636
   10.7500      0.0650013      0.0652230      0.0741347
   10.8500      0.0656388      0.0656745      0.0741117
   10.9500      0.0663835      0.0664047      0.0740954
   11.0500      0.0671918      0.0670858      0.0740863
   11.1500      0.0676820      0.0674559      0.0740839
   11.2500      0.0674939      0.0674397      0.0740883
   11.3500      0.0671433      0.0677340      0.0741002
   11.4500      0.0685650      0.0688317      0.0741196
   11.5500      0.0707868      0.0709513      0.0741437
   11.6500      0.0735022      0.0737401      0.0741693
   11.7500      0.0769312      0.0769682      0.0741922
   11.8500      0.0804712      0.0802716      0.0742090
   11.9500      0.0834124      0.0831011      0.0742164
   12.0500      0.0854196      0.0849760      0.0742128
   12.1500      0.0860960      0.0856429      0.0741977
   12.2500      0.0854132      0.0849322      0.0741725
   12.3500      0.0832875      0.0830092      0.0741401
   12.4500      0.0803269      0.0802162      0.0741041
   12.5500      0.0770343      0.0772087      0.0740675
   12.6500      0.0742650      0.0742303      0.0740324
   12.7500      0.0713917      0.0714723      0.0739997
   12.8500      0.0687602      0.0689364      0.0739701
   12.9500      0.0666574      0.0668976      0.0739450
   13.0500      0.0652753      0.0656655      0.0739256
   13.1500      0.0650639      0.0650574      0.0739127
   13.2500      0.0648332      0.0651171      0.0739068
   13.3500      0.0654543      0.0655814      0.0739088
   13.4500      0.0664567      0.0667053      0.0739191
   13.5500      0.0682048      0.0683077      0.0739375
   13.6500      0.0702615      0.0704696      0.0739618
   13.7500      0.0729423      0.0728686      0.0739896
   13.8500      0.0754020      0.0753496      0.0740175
   13.9500      0.0777043      0.0777641      0.0740428
   14.0500      0.0801858      0.0800362      0.0740626
   14.1500      0.0822185      0.0821225      0.0740744
   14.2500      0.0839631      0.0838618      0.0740759
   14.3500      0.0854038      0.0847869      0.0740652
   14.4500      0.0849938      0.0843359      0.0740418
   14.5500      0.0826101      0.0822582      0.0740067
   14.6500      0.0791706      0.0788249      0.0739633
   14.7500      0.0746940      0.0749328      0.0739159
   14.8500      0.0709338      0.0710671      0.0738703
   14.9500      0.0675735      0.0678006      0.0738316
   15.0500      0.0648944      0.0653574      0.0738038
   15.1500      0.0636043      0.0643676      0.0737897
   15.2500      0.0646040      0.0649209      0.0737897
   15.3500      0.0665544      0.0669527      0.0738015
   15.4500      0.0696996      0.0694261      0.0738216
   15.5500      0.0720244      0.0719149      0.0738452
   15.6500      0.0740206      0.0738161      0.0738686
   15.7500      0.0754032      0.0751849      0.0738887
   15.8500      0.0761309      0.0760064      0.0739038
   15.9500      0.0764852      0.0760524      0.0739136
   16.0500      0.0755411      0.0754940      0.0739180
   16.1500      0.0744557      0.0747283      0.0739181
   16.2500      0.0741880      0.0743991      0.0739155
   16.3500      0.0745537      0.0747029      0.0739107
   16.4500      0.0753671      0.0754449      0.0739038
   16.5500      0.0764139      0.0765134      0.0738944
   16.6500      0.0777593      0.0776614      0.0738823
   16.7500      0.0788109      0.0787609      0.0738672
   16.8500      0.0797125      0.0791991      0.0738490
   16.9500      0.0790740      0.0786301      0.0738278
   17.0500      0.0771039      0.0769029      0.0738049
   17.1500      0.0745307      0.0743260      0.0737823
   17.2500      0.0713434      0.0714275      0.0737624
   17.3500      0.0684084      0.0687552      0.0737476
   17.4500      0.0665138      0.0669228      0.0737402
   17.5500      0.0658461      0.0663336      0.0737412
   17.6500      0.0666410      0.0669929      0.0737503
   17.7500      0.0684916      0.0688214      0.0737660
   17.8500      0.0713317      0.0714891      0.0737859
   17.9500      0.0746439      0.0744050      0.0738064
   18.0500      0.0772393      0.0768020      0.0738238
   18.1500      0.0785229      0.0781967      0.0738353
   18.2500      0.0788278      0.0783190      0.0738391
   18.3500      0.0776065      0.0774368      0.0738351
   18.4500      0.0758760      0.0758590      0.0738245
   18.5500      0.0740944      0.0742323      0.0738097
   18.6500      0.0727264      0.0728488      0.0737931
   18.7500      0.0717258      0.0719553      0.0737771
   18.8500      0.0714136      0.0719000      0.0737635
   18.9500      0.0725605      0.0726062      0.0737536
   19.0500      0.0738444      0.0738979      0.0737468
   19.1500      0.0752888      0.0751233      0.0737424
   19.2500      0.0762367      0.0759857      0.0737394
   19.3500      0.0764315      0.0763978      0.0737368
   19.4500      0.0765251      0.0761255      0.0737344
   19.5500      0.0754198      0.0753761      0.0737322
   19.6500      0.0741833      0.0741009      0.0737307
   19.7500      0.0726996      0.0729251      0.0737302
   19.8500      0.0718924      0.0720250      0.0737310
   19.9500      0.0714830      0.0716428      0.0737326
   20.0500      0.0715530      0.0715922      0.0737344
   20.1500      0.0717407      0.0718002      0.0737358
   20.2500      0.0721070      0.0721666      0.0737361
   20.3500      0.0726521      0.0726211      0.0737346
   20.4500      0.0731040      0.0731378      0.0737313
   20.5500      0.0736574      0.0734366      0.0737264
   20.6500      0.0735485      0.0734830      0.0737206
   20.7500      0.0732431      0.0732351      0.0737147
   20.8500      0.0729138      0.0731159      0.0737095
   20.9500      0.0731907      0.0731347      0.0737059
   21.0500      0.0732996      0.0734031      0.0737041
   21.1500      0.0737191      0.0738260      0.0737045
   21.2500      0.0744591      0.0744389      0.0737065
   21.3500      0.0751386      0.0752756      0.0737092
   21.4500      0.0762290      0.0760502      0.0737117
   21.5500      0.0767829      0.0768112      0.0737127
   21.6500      0.0774217      0.0771092      0.0737116
   21.7500      0.0771229      0.0767820      0.0737075
   21.8500      0.0758015      0.0758932      0.0737007
   21.9500      0.0747553      0.0745661      0.0736923
   22.0500      0.0731415      0.0731880      0.0736835
   22.1500      0.0716671      0.0718239      0.0736755
   22.2500      0.0706630      0.0708000      0.0736695
   22.3500      0.0700700      0.0703815      0.0736659
   22.4500      0.0704114      0.0706707      0.0736644
   22.5500      0.0715306      0.0715255      0.0736643
   22.6500      0.0726347      0.0725153      0.0736641
   22.7500      0.0733806      0.0731604      0.0736630
   22.8500      0.0734658      0.0732582      0.0736606
   22.9500      0.0729280      0.0730090      0.0736573
   23.0500      0.0726333      0.0725667      0.0736544
   23.1500      0.0721389      0.0722121      0.0736531
   23.2500      0.0718643      0.0721280      0.0736546
   23.3500      0.0723808      0.0725354      0.0736594
   23.4500      0.0733611      0.0735991      0.0736671
   23.5500      0.0750554      0.0752081      0.0736762
   23.6500      0.0772079      0.0770380      0.0736848
   23.7500      0.0788508      0.0785328      0.0736905
   23.8500      0.0795399      0.0791966      0.0736916
   23.9500      0.0791992      0.0789324      0.0736870
   24.0500      0.0780581      0.0777899      0.0736768
   24.1500      0.0761124      0.0760386      0.0736621
   24.2500      0.0739453      0.0738420      0.0736449
   24.3500      0.0714682      0.0715682      0.0736273
   24.4500      0.0692910      0.0696242      0.0736117
   24.5500      0.0681134      0.0684202      0.0736002
   24.6500      0.0678561      0.0680851      0.0735940
   24.7500      0.0682857      0.0685707      0.0735933
   24.8500      0.0695704      0.0696487      0.0735977
   24.9500      0.0710901      0.0711450      0.0736057
   25.0500      0.0727745      0.0727550      0.0736158
   25.1500      0.0744003      0.0742373      0.0736262
   25.2500      0.0755370      0.0753454      0.0736353
   25.3500      0.0760990      0.0758854      0.0736422
   25.4500      0.0760203      0.0759072      0.0736462
   25.5500      0.0756023      0.0755915      0.0736477
   25.6500      0.0751520      0.0751595      0.0736472
   25.7500      0.0747241      0.0747436      0.0736455
   25.8500      0.0743546      0.0745645      0.0736432
   25.9500      0.0746148      0.0746503      0.0736405
   26.0500      0.0749813      0.0750805      0.0736371
   26.1500      0.0756454      0.0756025      0.0736326
   26.2500      0.0761807      0.0760332      0.0736264
   26.3500      0.0762734      0.0760091      0.0736180
   26.4500      0.0755733      0.0753356      0.0736072
   26.5500      0.0741600      0.0740689      0.0735950
   26.6500      0.0724733      0.0724937      0.0735829
   26.7500      0.0708479      0.0709159      0.0735725
   26.8500      0.0694265      0.0696108      0.0735655
   26.9500      0.0685580      0.0688648      0.0735630
   27.0500      0.0686098      0.0689157      0.0735654
   27.1500      0.0695793      0.0697961      0.0735722
   27.2500      0.0711993      0.0712895      0.0735822
   27.3500      0.0730899      0.0729268      0.0735936
   27.4500      0.0744911      0.0744388      0.0736045
   27.5500      0.0757354      0.0755810      0.0736135
   27.6500      0.0765164      0.0763723      0.0736195
   27.7500      0.0768650      0.0767296      0.0736224
   27.8500      0.0768073      0.0766115      0.0736219
   27.9500      0.0761623      0.0761616      0.0736185
   28.0500      0.0755151      0.0755183      0.0736129
   28.1500      0.0748774      0.0749187      0.0736054
   28.2500      0.0743636      0.0743060      0.0735969
   28.3500      0.0736770      0.0738084      0.0735879
   28.4500      0.0733844      0.0733458      0.0735790
   28.5500      0.0729759      0.0730681      0.0735707
   28.6500      0.0728440      0.0728739      0.0735634
   28.7500      0.0728017      0.0728527      0.0735575
   28.8500      0.0729123      0.0727960      0.0735534
   28.9500      0.0726740      0.0726384      0.0735510
   29.0500      0.0723289      0.0722838      0.0735505
   29.1500      0.0718485      0.0719621      0.0735519
   29.2500      0.0717088      0.0717622      0.0735553
   29.3500      0.0717294      0.0718039      0.0735604
   29.4500      0.0719735      0.0721180      0.0735668
   29.5500      0.0726511      0.0727650      0.0735736
   29.6500      0.0736705      0.0736372      0.0735798
   29.7500      0.0745901      0.0746085      0.0735843
   29.8500      0.0755650      0.0753099      0.0735865
   29.9500      0.0757747      0.0756939      0.0735855
   30.0500      0.0757419      0.0754559      0.0735816
   30.1500      0.0748512      0.0748890      0.0735752
   30.2500      0.0740739      0.0740430      0.0735678
   30.3500      0.0732038      0.0733759      0.0735604
   30.4500      0.0728501      0.0729368      0.0735544
   30.5500      0.0727566      0.0728850      0.0735501
   30.6500      0.0730483      0.0731093      0.0735476
   30.7500      0.0735230      0.0735898      0.0735466
   30.8500      0.0741983      0.0740745      0.0735464
   30.9500      0.0745022      0.0743753      0.0735463
   31.0500      0.0744255      0.0743470      0.0735457
   31.1500      0.0741132      0.0739787      0.0735444
   31.2500      0.0733974      0.0734242      0.0735424
   31.3500      0.0727619      0.0727825      0.0735402
   31.4500      0.0721883      0.0723919      0.0735380
   31.5500      0.0722254      0.0722183      0.0735358
   31.6500      0.0722413      0.0723791      0.0735333
   31.7500      0.0726706      0.0726607      0.0735299
   31.8500      0.0730702      0.0731257      0.0735246
   31.9500      0.0736363      0.0734973      0.0735166
   32.0500      0.0737854      0.0738409      0.0735051
   32.1500      0.0741010      0.0740623      0.0734896
   32.2500      0.0743004      0.0742698      0.0734695
   32.3500      0.0744080      0.0742927      0.0734448
   32.4500      0.0741696      0.0741443      0.0734156
   32.5500      0.0738553      0.0738335      0.0733822
   32.6500      0.0734756      0.0734751      0.0733451
   32.7500      0.0730943      0.0730585      0.0733048
   32.8500      0.0726055      0.0727715      0.0732617
   32.9500      0.0726145      0.0726994      0.0732162
   33.0500      0.0728782      0.0729906      0.0731682
   33.1500      0.0734790      0.0735699      0.0731169
   33.2500      0.0743526      0.0743828      0.0730614
   33.3500      0.0753167      0.0751743      0.0730004
   33.4500      0.0758536      0.0756680      0.0729326
   33.5500      0.0758335      0.0756712      0.0728571
   33.6500      0.0753265      0.0751250      0.0727734
   33.7500      0.0742151      0.0741615      0.0726816
   33.8500      0.0729430      0.0729223      0.0725824
   33.9500      0.0716090      0.0717334      0.0724767
   34.0500      0.0706482      0.0708522      0.0723655
   34.1500      0.0702995      0.0706456      0.0722494
   34.2500      0.0709892      0.0709614      0.0721285
   34.3500      0.0715954      0.0718095      0.0720018
   34.4500      0.0728439      0.0727073      0.0718688
   34.5500      0.0736826      0.0736400      0.0717283
   34.6500      0.0743934      0.0743327      0.0715797
   34.7500      0.0749222      0.0748156      0.0714223
   34.8500      0.0751313      0.0749287      0.0712560
   34.9500      0.0747326      0.0747168      0.0710806
   35.0500      0.0742866      0.0743638      0.0708966
   35.1500      0.0740722      0.0741132      0.0707039
   35.2500      0.0739807      0.0740534      0.0705026
   35.3500      0.0741074      0.0740944      0.0702920
   35.4500      0.0741949      0.0741887      0.0700717
   35.5500      0.0742637      0.0742257      0.0698411
   35.6500      0.0742186      0.0742279      0.0695999
   35.7500      0.0742016      0.0741682      0.0693479
   35.8500      0.0740844      0.0740570      0.0690851
   35.9500      0.0738849      0.0737722      0.0688113
   36.0500      0.0733473      0.0732188      0.0685268
   36.1500      0.0724242      0.0724317      0.0682318
   36.2500      0.0715237      0.0714349      0.0679268
   36.3500      0.0703567      0.0704698      0.0676122
   36.4500      0.0695291      0.0693853      0.0672886
   36.5500      0.0682701      0.0685790      0.0669565
   36.6500      0.0679379      0.0680204      0.0666165
   36.7500      0.0678533      0.0679494      0.0662690
   36.8500      0.0680571      0.0680948      0.0659139
   36.9500      0.0683739      0.0683419      0.0655510
   37.0500      0.0685947      0.0684714      0.0651799
   37.1500      0.0684455      0.0683160      0.0648005
   37.2500      0.0679079      0.0677846      0.0644128
   37.3500      0.0670004      0.0668956      0.0640170
   37.4500      0.0657786      0.0657727      0.0636136
   37.5500      0.0645391      0.0646108      0.0632036
   37.6500      0.0635147      0.0636466      0.0627874
   37.7500      0.0628859      0.0629040      0.0623656
   37.8500      0.0623115      0.0624550      0.0619381
   37.9500      0.0621677      0.0621094      0.0615050
   38.0500      0.0618489      0.0617208      0.0610660
   38.1500      0.0611458      0.0611153      0.0606213
   38.2500      0.0603511      0.0603484      0.0601713
   38.3500      0.0595484      0.0595386      0.0597167
   38.4500      0.0587164      0.0587236      0.0592586
   38.5500      0.0579061      0.0578828      0.0587976
   38.6500      0.0570259      0.0571536      0.0583346
   38.7500      0.0565289      0.0566266      0.0578702
   38.8500      0.0563251      0.0563635      0.0574044
   38.9500      0.0562365      0.0562143      0.0569368
   39.0500      0.0560812      0.0560455      0.0564669
   39.1500      0.0558188      0.0558439      0.0559943
   39.2500      0.0556316      0.0555794      0.0555187
   39.3500      0.0552876      0.0552839      0.0550400
   39.4500      0.0549326      0.0549432      0.0545585
   39.5500      0.0546093      0.0545442      0.0540745
   39.6500      0.0540908      0.0540626      0.0535883
   39.7500      0.0534877      0.0534712      0.0531004
   39.8500      0.0528349      0.0528188      0.0526113
   39.9500      0.0521337      0.0521079      0.0521215
   40.0500      0.0513550      0.0513024      0.0516316
   40.1500      0.0504183      0.0505032      0.0511418
   40.2500      0.0497361      0.0497720      0.0506526
   40.3500      0.0491617      0.0492526      0.0501643
   40.4500      0.0488598      0.0488102      0.0496773
   40.5500      0.0484090      0.0484448      0.0491915
   40.6500      0.0480656      0.0480349      0.0487073
   40.7500      0.0476302      0.0475692      0.0482248
   40.8500      0.0470119      0.0470106      0.0477441
   40.9500      0.0463897      0.0463247      0.0472656
   41.0500      0.0455724      0.0456124      0.0467896
   41.1500      0.0448751      0.0449544      0.0463166
   41.2500      0.0444157      0.0444291      0.0458467
   41.3500      0.0439965      0.0441299      0.0453797
   41.4500      0.0439776      0.0439933      0.0449156
   41.5500      0.0440059      0.0440344      0.0444538
   41.6500      0.0441198      0.0440231      0.0439937
   41.7500      0.0439436      0.0439212      0.0435349
   41.8500      0.0437003      0.0435468      0.0430772
   41.9500      0.0429965      0.0430925      0.0426207
   42.0500      0.0425807      0.0425026      0.0421660
   42.1500      0.0419305      0.0419489      0.0417134
   42.2500      0.0413355      0.0413357      0.0412631
   42.3500      0.0407412      0.0407456      0.0408154
   42.4500      0.0401601      0.0401738      0.0403702
   42.5500      0.0396202      0.0396185      0.0399273
   42.6500      0.0390752      0.0390192      0.0394866
   42.7500      0.0383621      0.0383545      0.0390477
   42.8500      0.0376263      0.0376519      0.0386106
   42.9500      0.0369672      0.0370063      0.0381757
   43.0500      0.0364255      0.0364871      0.0377429
   43.1500      0.0360685      0.0360733      0.0373127
   43.2500      0.0357260      0.0357646      0.0368850
   43.3500      0.0354993      0.0354749      0.0364598
   43.4500      0.0351995      0.0352146      0.0360369
   43.5500      0.0349452      0.0349473      0.0356162
   43.6500      0.0346972      0.0346907      0.0351976
   43.7500      0.0344299      0.0344026      0.0347809
   43.8500      0.0340808      0.0340944      0.0343660
   43.9500      0.0337726      0.0338167      0.0339527
   44.0500      0.0335967      0.0336167      0.0335411
   44.1500      0.0334809      0.0334419      0.0331310
   44.2500      0.0332483      0.0332050      0.0327224
   44.3500      0.0328858      0.0328317      0.0323151
   44.4500      0.0323609      0.0322837      0.0319091
   44.5500      0.0316045      0.0316044      0.0315046
   44.6500      0.0308476      0.0308328      0.0311018
   44.7500      0.0300463      0.0301019      0.0307011
   44.8500      0.0294119      0.0294824      0.0303026
   44.9500      0.0289891      0.0290154      0.0299064
   45.0500      0.0286453      0.0286655      0.0295124
   45.1500      0.0283620      0.0283833      0.0291205
   45.2500      0.0281425      0.0281189      0.0287303
   45.3500      0.0278522      0.0278190      0.0283417
   45.4500      0.0274622      0.0274668      0.0279545
   45.5500      0.0270860      0.0270444      0.0275688
   45.6500      0.0265852      0.0266197      0.0271847
   45.7500      0.0261881      0.0261888      0.0268025
   45.8500      0.0257931      0.0258542      0.0264223
   45.9500      0.0255815      0.0255374      0.0260442
   46.0500      0.0252378      0.0252411      0.0256680
   46.1500      0.0249041      0.0248925      0.0252936
   46.2500      0.0245358      0.0245419      0.0249209
   46.3500      0.0241858      0.0241837      0.0245498
   46.4500      0.0238295      0.0238280      0.0241803
   46.5500      0.0234687      0.0234805      0.0238124
   46.6500      0.0231432      0.0232149      0.0234462
   46.7500      0.0230328      0.0230448      0.0230817
   46.8500      0.0229585      0.0229347      0.0227191
   46.9500      0.0228128      0.0227578      0.0223580
   47.0500      0.0225022      0.0224811      0.0219984
   47.1500      0.0221285      0.0220416      0.0216402
   47.2500      0.0214942      0.0214861      0.0212833
   47.3500      0.0208357      0.0208162      0.0209279
   47.4500      0.0201189      0.0201239      0.0205744
   47.5500      0.0194171      0.0194771      0.0202229
   47.6500      0.0188952      0.0189153      0.0198738
   47.7500      0.0184337      0.0184705      0.0195274
   47.8500      0.0180828      0.0180902      0.0191837
   47.9500      0.0177541      0.0177533      0.0188429
   48.0500      0.0174229      0.0174504      0.0185048
   48.1500      0.0171741      0.0171754      0.0181694
   48.2500      0.0169291      0.0169466      0.0178368
   48.3500      0.0167365      0.0167715      0.0175069
   48.4500      0.0166488      0.0166712      0.0171796
   48.5500      0.0166282      0.0166203      0.0168550
   48.6500      0.0165838      0.0165633      0.0165328
   48.7500      0.0164781      0.0164635      0.0162128
   48.8500      0.0163285      0.0162630      0.0158951
   48.9500      0.0159824      0.0159561      0.0155793
   49.0500      0.0155573      0.0155413      0.0152657
   49.1500      0.0150843      0.0150664      0.0149544
   49.2500      0.0145575      0.0145678      0.0146454
   49.3500      0.0140615      0.0140765      0.0143392
   49.4500      0.0136105      0.0136298      0.0140359
   49.5500      0.0132173      0.0132152      0.0137357
   49.6500      0.0128178      0.0128054      0.0134387
   49.7500      0.0123811      0.0123585      0.0131449
   49.8500      0.0118766      0.0118743      0.0128544
   49.9500      0.0113652      0.0113626      0.0125672
   50.0500      0.0108460      0.0108735      0.0122836
   50.1500      0.0104092      0.0104359      0.0120037
   50.2500      0.0100525      0.0100908      0.0117279
   50.3500      0.0098107      0.0098559      0.0114562
   50.4500      0.0097046      0.0097324      0.0111888
   50.5500      0.0096819      0.0096705      0.0109257
   50.6500      0.0096250      0.0096211      0.0106666
   50.7500      0.0095566      0.0095594      0.0104114
   50.8500      0.0094968      0.0094567      0.0101599
   50.9500      0.0093169      0.0093184      0.0099120
   51.0500      0.0091414      0.0091132      0.0096674
   51.1500      0.0088813      0.0088827      0.0094263
   51.2500      0.0086253      0.0086296      0.0091886
   51.3500      0.0083821      0.0083606      0.0089544
   51.4500      0.0080742      0.0080672      0.0087237
   51.5500      0.0077452      0.0077285      0.0084964
   51.6500      0.0073661      0.0073579      0.0082728
   51.7500      0.0069622      0.0069578      0.0080529
   51.8500      0.0065450      0.0065433      0.0078370
   51.9500      0.0061227      0.0061489      0.0076253
   52.0500      0.0057790      0.0057889      0.0074181
   52.1500      0.0054649      0.0054952      0.0072157
   52.2500      0.0052418      0.0052608      0.0070181
   52.3500      0.0050758      0.0050926      0.0068255
   52.4500      0.0049602      0.0049923      0.0066376
   52.5500      0.0049408      0.0049521      0.0064544
   52.6500      0.0049554      0.0049583      0.0062756
   52.7500      0.0049788      0.0049917      0.0061008
   52.8500      0.0050410      0.0050254      0.0059298
   52.9500      0.0050564      0.0050570      0.0057623
   53.0500      0.0050736      0.0050566      0.0055982
   53.1500      0.0050397      0.0050313      0.0054373
   53.2500      0.0049805      0.0049582      0.0052795
   53.3500      0.0048542      0.0048568      0.0051247
   53.4500      0.0047355      0.0047115      0.0049728
   53.5500      0.0045448      0.0045471      0.0048239
   53.6500      0.0043611      0.0043401      0.0046781
   53.7500      0.0041144      0.0041185      0.0045355
   53.8500      0.0038799      0.0038698      0.0043962
   53.9500      0.0036151      0.0036262      0.0042604
   54.0500      0.0033834      0.0033713      0.0041282
   54.1500      0.0031154      0.0031297      0.0039997
   54.2500      0.0028903      0.0029048      0.0038749
   54.3500      0.0027086      0.0027122      0.0037537
   54.4500      0.0025378      0.0025552      0.0036363
   54.5500      0.0024192      0.0024394      0.0035224
   54.6500      0.0023612      0.0023754      0.0034120
   54.7500      0.0023459      0.0023636      0.0033049
   54.8500      0.0023838      0.0023875      0.0032012
   54.9500      0.0024328      0.0024396      0.0031004
   55.0500      0.0025021      0.0025016      0.0030024
   55.1500      0.0025697      0.0025694      0.0029069
   55.2500      0.0026362      0.0026159      0.0028137
   55.3500      0.0026419      0.0026314      0.0027225
   55.4500      0.0026161      0.0026059      0.0026332
   55.5500      0.0025598      0.0025375      0.0025457
   55.6500      0.0024367      0.0024299      0.0024600
   55.7500      0.0022931      0.0022889      0.0023761
   55.8500      0.0021370      0.0021277      0.0022942
   55.9500      0.0019528      0.0019550      0.0022144
   56.0500      0.0017752      0.0017826      0.0021367
   56.1500      0.0016198      0.0016217      0.0020613
   56.2500      0.0014701      0.0014747      0.0019881
   56.3500      0.0013343      0.0013445      0.0019172
   56.4500      0.0012292      0.0012309      0.0018487
   56.5500      0.0011291      0.0011403      0.0017824
   56.6500      0.0010626      0.0010746      0.0017183
   56.7500      0.0010321      0.0010382      0.0016565
   56.8500      0.0010200      0.0010297      0.0015966
   56.9500      0.0010371      0.0010384      0.0015387
   57.0500      0.0010580      0.0010601      0.0014825
   57.1500      0.0010853      0.0010857      0.0014278
   57.2500      0.0011139      0.0011088      0.0013745
   57.3500      0.0011271      0.0011300      0.0013224
   57.4500      0.0011490      0.0011346      0.0012715
   57.5500      0.0011277      0.0011256      0.0012217
   57.6500      0.0011002      0.0010881      0.0011729
   57.7500      0.0010364      0.0010333      0.0011251
   57.8500      0.0009633      0.0009583      0.0010785
   57.9500      0.0008753      0.0008764      0.0010331
   58.0500      0.0007906      0.0007893      0.0009889
   58.1500      0.0007021      0.0007075      0.0009460
   58.2500      0.0006299      0.0006297      0.0009045
   58.3500      0.0005571      0.0005654      0.0008646
   58.4500      0.0005092      0.0005080      0.0008260
   58.5500      0.0004578      0.0004628      0.0007890
   58.6500      0.0004214      0.0004212      0.0007534
   58.7500      0.0003844      0.0003861      0.0007193
   58.8500      0.0003525      0.0003553      0.0006865
   58.9500      0.0003290      0.0003356      0.0006551
   59.0500      0.0003253      0.0003287      0.0006249
   59.1500      0.0003317      0.0003273      0.0005958
   59.2500      0.0003250      0.0003264      0.0005678
   59.3500      0.0003225      0.0003217      0.0005407
   59.4500      0.0003177      0.0003177      0.0005145
   59.5500      0.0003129      0.0003105      0.0004891
   59.6500      0.0003008      0.0003050      0.0004644
   59.7500      0.0003013      0.0002945      0.0004404
   59.8500      0.0002813      0.0002804      0.0004171
   59.9500      0.0002584      0.0002545      0.0003945
   60.0500      0.0002238      0.0002233      0.0003726
   60.1500      0.0001878      0.0001894      0.0003514
   60.2500      0.0001567      0.0001576      0.0003311
   60.3500      0.0001282      0.0001303      0.0003117
   60.4500      0.0001060      0.0001081      0.0002931
   60.5500      0.0000901      0.0000908      0.0002755
   60.6500      0.0000762      0.0000782      0.0002588
   60.7500      0.0000684      0.0000673      0.0002431
   60.8500      0.0000574      0.0000584      0.0002282
   60.9500      0.0000493      0.0000490      0.0002142
   61.0500      0.0000404      0.0000416      0.0002010
   61.1500      0.0000352      0.0000360      0.0001884
   61.2500      0.0000324      0.0000322      0.0001766
   61.3500      0.0000289      0.0000289      0.0001653
   61.4500      0.0000253      0.0000251      0.0001546
   61.5500      0.0000211      0.0000208      0.0001444
   61.6500      0.0000161      0.0000156      0.0001346
   61.7500      0.0000096      0.0000104      0.0001252
   61.8500      0.0000055      0.0000059      0.0001163
   61.9500      0.0000025      0.0000030      0.0001077
   62.0500      0.0000009      0.0000012      0.0000996
   62.1500      0.0000001      0.0000003      0.0000918
   62.2500      0.0000000      0.0000000      0.0000844
   62.3500      0.0000000      0.0000000      0.0000775
   62.4500      0.0000000      0.0000000      0.0000710
   62.5500      0.0000000      0.0000000      0.0000649
   62.6500      0.0000000      0.0000000      0.0000592
   62.7500      0.0000000      0.0000000      0.0000540
   62.8500      0.0000000      0.0000000      0.0000492
   62.9500      0.0000000      0.0000000      0.0000449
   63.0500      0.0000000      0.0000000      0.0000408
   63.1500      0.0000000      0.0000000      0.0000372
   63.2500      0.0000000      0.0000000      0.0000338
   63.3500      0.0000000      0.0000000      0.0000307
   63.4500      0.0000000      0.0000000      0.0000278
   63.5500      0.0000000      0.0000000      0.0000252
   63.6500      0.0000000      0.0000000      0.0000227
   63.7500      0.0000000      0.0000000      0.0000204
   63.8500      0.0000000      0.0000000      0.0000183
   63.9500      0.0000000      0.0000000      0.0000163
   64.0500      0.0000000      0.0000000      0.0000145
   64.1500      0.0000000      0.0000000      0.0000128
   64.2500      0.0000000      0.0000000      0.0000112
   64.3500      0.0000000      0.0000000      0.0000098
   64.4500      0.0000000      0.0000000      0.0000084
   64.5500      0.0000000      0.0000000      0.0000072
   64.6500      0.0000000      0.0000000      0.0000062
   64.7500      0.0000000      0.0000000      0.0000052
   64.8500      0.0000000      0.0000000      0.0000043
   64.9500      0.0000000      0.0000000      0.0000036
   65.0500      0.0000000      0.0000000      0.0000030
   65.1500      0.0000000      0.0000000      0.0000025
   65.2500      0.0000000      0.0000000      0.0000020
   65.3500      0.0000000      0.0000000      0.0000017
   65.4500      0.0000000      0.0000000      0.0000014
   65.5500      0.0000000      0.0000000      0.0000011
   65.6500      0.0000000      0.0000000      0.0000009
   65.7500      0.0000000      0.0000000      0.0000007
   65.8500      0.0000000      0.0000000      0.0000006
   65.9500      0.0000000      0.0000000      0.0000004
   66.0500      0.0000000      0.0000000      0.0000003
   66.1500      0.0000000      0.0000000      0.0000002
   66.2500      0.0000000      0.0000000      0.0000002
   66.3500      0.0000000      0.0000000      0.0000001
   66.4500      0.0000000      0.0000000      0.0000001
   66.5500      0.0000000      0.0000000      0.0000000
   66.6500      0.0000000      0.0000000      0.0000000
   66.7500      0.0000000      0.0000000      0.0000000
   66.8500      0.0000000      0.0000000      0.0000000
   66.9500      0.0000000      0.0000000      0.0000000
   67.0500      0.0000000      0.0000000      0.0000000
   67.1500      0.0000000      0.0000000      0.0000000
   67.2500      0.0000000      0.0000000      0.0000000
   67.3500      0.0000000      0.0000000      0.0000000
   67.4500      0.0000000      0.0000000      0.0000000
   67.5500      0.0000000      0.0000000      0.0000000
   67.6500      0.0000000      0.0000000      0.0000000
   67.7500      0.0000000      0.0000000      0.0000000
   67.8500      0.0000000      0.0000000      0.0000000
   67.9500      0.0000000      0.0000000      0.0000000
   68.0500      0.0000000      0.0000000      0.0000000
   68.1500      0.0000000      0.0000000      0.0000000
   68.2500      0.0000000      0.0000000      0.0000000
   68.3500      0.0000000      0.0000000      0.0000000
   68.4500      0.0000000      0.0000000      0.0000000
   68.5500      0.0000000      0.0000000      0.0000000
   68.6500      0.0000000      0.0000000      0.0000000
   68.7500      0.0000000      0.0000000      0.0000000
   68.8500      0.0000000      0.0000000      0.0000000
   68.9500      0.0000000      0.0000000      0.0000000
   69.0500      0.0000000      0.0000000      0.0000000
   69.1500      0.0000000      0.0000000      0.0000000
   69.2500      0.0000000      0.0000000      0.0000000
   69.3500      0.0000000      0.0000000      0.0000000
   69.4500      0.0000000      0.0000000      0.0000000
   69.5500      0.0000000      0.0000000      0.0000000
   69.6500      0.0000000      0.0000000      0.0000000
   69.7500      0.0000000      0.0000000      0.0000000
   69.8500      0.0000000      0.0000000      0.0000000
   69.9500      0.0000000      0.0000000      0.0000000
   70.0500      0.0000000      0.0000000      0.0000000
   70.1500      0.0000000      0.0000000      0.0000000
   70.2500      0.0000000      0.0000000      0.0000000
   70.3500      0.0000000      0.0000000      0.0000000
   70.4500      0.0000000      0.0000000      0.0000000
   70.5500      0.0000000      0.0000000      0.0000000
   70.6500      0.0000000      0.0000000      0.0000000
   70.7500      0.0000000      0.0000000      0.0000000
   70.8500      0.0000000      0.0000000      0.0000000
   70.9500      0.0000000      0.0000000      0.0000000
   71.0500      0.0000000      0.0000000      0.0000000
   71.1500      0.0000000      0.0000000      0.0000000
   71.2500      0.0000000      0.0000000      0.0000000
   71.3500      0.0000000      0.0000000      0.0000000
   71.4500      0.0000000      0.0000000      0.0000000
   71.5500      0.0000000      0.0000000      0.0000000
   71.6500      0.0000000      0.0000000      0.0000000
   71.7500      0.0000000      0.0000000      0.0000000
   71.8500      0.0000000      0.0000000      0.0000000
   71.9500      0.0000000      0.0000000      0.0000000
